File: TGA-MS/DWTROR.D/tic_front.csv
D:\GAILLARD\WALLACE_SAMUEL\DWTROR.D 13 Sep 21  12:27 pm
Start of data points
0.0959667,100457
0.516583,92966
0.937217,97160
1.35785,2791925
1.77847,21222
2.1991,21702
2.61972,21779
3.04035,20918
3.46097,22875
3.8816,21213
4.30222,22516
4.72285,20627
5.14347,21022
5.5641,21978
5.98473,20908
6.40535,27466
6.82598,21086
7.2466,21118
7.66723,21232
8.08785,20561
8.50848,22945
8.9291,21582
9.34973,1956876
9.77035,21187
10.191,21100
10.6116,21817
11.0322,21262
11.4529,24835
11.8735,21864
12.2941,22216
12.7147,22269
13.1354,21571
13.556,23543
13.9766,21726
14.3973,41170
14.8179,21721
15.2385,22005
15.6591,22119
16.0798,22560
16.5004,23797
16.921,21151
17.3416,1609125
17.7623,21487
18.1829,21761
18.6035,22948
19.0241,22116
19.4448,25521
19.8654,22587
20.286,22232
20.7066,22649
21.1273,22655
21.5479,23788
21.9685,21741
22.3891,67413
22.8098,22030
23.2304,22248
23.651,22908
24.0716,22544
24.4923,24150
24.9129,22458
25.3335,764454
25.7541,22095
26.1748,22560
26.5954,22658
27.016,22403
27.4367,24890
27.8573,22198
28.2779,22762
28.6985,22638
29.1192,23051
29.5398,24393
29.9604,22366
30.381,168560
30.8017,23077
31.2223,22511
31.6429,22189
32.0635,22890
32.4842,25060
32.9048,23107
33.3254,171478
33.746,23702
34.1666,22578
34.5873,23618
35.0079,22844
35.4285,26171
35.8492,22313
36.2698,22537
36.6904,23035
37.111,22495
37.5317,24755
37.9523,23208
38.3729,521789
38.7935,23097
39.2142,23065
39.6348,23466
40.0554,22431
40.4761,26089
40.8967,23573
41.3173,33021
41.7379,22799
42.1586,23124
42.5792,24879
42.9998,22904
43.4204,30630
43.8411,23536
44.2617,22802
44.6823,23673
45.1029,23149
45.5236,25104
45.9442,23401
46.3648,1292446
46.7854,23811
47.2061,23207
47.6267,23494
48.0473,22843
48.4679,26123
48.8886,23646
49.3092,24049
49.7298,23525
50.1504,23264
50.5711,25769
50.9917,22905
51.4123,32461
51.8329,22969
52.2536,23546
52.6742,23475
53.0948,23437
53.5155,24977
53.9361,23958
54.3567,2162859
54.7773,23801
55.198,23928
55.6186,23822
56.0392,24303
56.4598,26049
56.8805,24203
57.3011,24910
57.7217,23671
58.1423,23719
58.563,25590
58.9836,24727
59.4042,35423
59.8248,24196
60.2455,23854
60.6661,24271
61.0867,23818
61.5073,25230
61.928,23909
62.3486,2477588
62.7692,23787
63.1898,24180
63.6105,24831
64.0311,23562
64.4517,26662
64.8723,24338
65.293,24881
65.7136,24080
66.1342,24013
66.5549,25195
66.9755,24902
67.3961,51810
67.8167,23939
68.2374,24586
68.658,24092
69.0786,24329
69.4992,25599
69.9198,24066
70.3405,1950523
70.7611,24108
71.1817,24433
71.6024,23912
72.023,24123
72.4436,26332
72.8642,24177
73.2849,23118
73.7055,24157
74.1261,23927
74.5467,26062
74.9674,23930
75.388,118208
75.8086,24531
76.2292,23409
76.6499,24079
77.0705,24342
77.4911,25985
77.9117,23681
78.3324,785877
78.753,24417
79.1736,23903
79.5943,23962
80.0149,24054
80.4355,26963
80.8561,24116
81.2768,24047
81.6974,24494
82.118,23933
82.5386,25851
82.9592,24153
83.3799,371068
83.8005,23721
84.2211,24879
84.6418,23874
85.0624,23965
85.483,25217
85.9036,24316
86.3243,145429
86.7449,24616
87.1655,23667
87.5861,24837
88.0068,22829
88.4274,27377
88.848,23368
89.2686,23975
89.6893,23690
90.1099,23699
90.5305,25258
90.9511,24099
91.3718,1154869
91.7924,24111
92.213,24419
92.6337,23982
93.0543,23735
93.4749,26247
93.8955,23780
94.3162,31409
94.7368,23682
95.1574,23387
95.578,24755
95.9986,23372
96.4193,28113
96.8399,24210
97.2605,23699
97.6812,23471
98.1018,23989
98.5224,25082
98.943,24138
99.3637,2314973
99.7843,23910
100.205,23863
100.626,23397
101.046,23408
101.467,26083
101.887,22913
102.308,23830
102.729,24316
103.149,24577
103.57,24545
103.991,23066
104.411,23880
104.832,23936
105.252,24425
105.673,24488
106.094,24441
106.514,24452
106.935,24493
107.356,24862
107.776,24369
108.197,24908
108.617,23935
109.038,24472
109.459,24682
109.879,25451
110.3,24076
110.721,25287
111.141,24680
111.562,24461
111.982,25628
112.403,25418
112.824,24724
113.244,24843
113.665,25535
114.086,25341
114.506,24725
114.927,25065
115.347,24547
115.768,24855
116.189,25366
116.609,25744
117.03,25201
117.451,25448
117.871,25268
118.292,25762
118.712,25524
119.133,25652
119.554,26006
119.974,26201
120.395,26628
120.816,24846
121.236,25664
121.657,26091
122.077,25548
122.498,25804
122.919,26028
123.339,25815
123.76,25813
124.181,26044
124.601,26559
124.996,26096