File: XRD/DWTR_IL/IDB data/IL_11.csv
twotheta, intensity, esd
25.0, 389.672, 19.5296
25.151, 373.321, 19.0981
25.302, 892.048, 29.5288
25.453, 444.839, 20.8509
25.604, 595.433, 24.2024
25.755, 748.914, 27.0517
25.906, 386.211, 19.4542
26.057, 461.402, 21.234
26.208, 418.003, 20.2018
26.359, 415.069, 20.1544
26.51, 445.454, 20.8568
26.661, 483.01, 21.7277
26.812, 531.705, 22.7503
26.963, 549.26, 23.185
27.114, 631.676, 24.8663
27.265, 545.472, 23.0869
27.416, 489.779, 21.8777
27.567, 414.12, 20.0846
27.718, 358.243, 18.7231
27.869, 371.712, 19.0658
28.02, 1874.5, 42.7714
28.171, 386.608, 19.4495
28.322, 407.378, 19.9463
28.473, 505.196, 22.1928
28.624, 1355.17, 36.343
28.775, 445.279, 20.8486
28.926, 407.99, 19.9763
29.077, 2422.62, 48.6621
29.228, 382.375, 19.2855
29.379, 321.036, 17.6971
29.53, 332.523, 18.0313
29.681, 307.852, 17.3435
29.832, 394.606, 19.6052
29.983, 357.542, 18.6865
30.134, 343.491, 18.3058
30.285, 342.197, 18.2888
30.436, 525.219, 22.6183
30.587, 370.29, 19.043
30.738, 340.254, 18.2372
30.889, 1529.34, 38.587
31.04, 336.352, 18.1326
31.191, 381.138, 19.2722
31.342, 329.224, 17.9318
31.493, 335.431, 18.0829
31.644, 308.936, 17.377
31.795, 374.656, 19.0915
31.946, 1534.92, 38.6784
32.097, 353.988, 18.5771
32.248, 516.33, 22.3814
32.399, 312.323, 17.4847
32.55, 318.072, 17.5873
32.701, 329.509, 17.8679
32.852, 295.904, 16.8588
33.003, 336.275, 17.9212
33.154, 391.131, 19.3137
33.305, 366.065, 18.7515
33.456, 405.71, 19.7
33.607, 705.729, 26.0242
33.758, 317.843, 17.4156
33.909, 287.282, 16.5294
34.06, 300.217, 16.9134
34.211, 308.969, 17.1894
34.362, 311.838, 17.376
34.513, 335.358, 18.0267
34.664, 277.705, 16.4481
34.815, 306.473, 17.2658
34.966, 573.616, 23.6303
35.117, 570.221, 23.5505
35.268, 323.079, 17.7024
35.419, 426.021, 20.3761
35.57, 324.576, 17.7578
35.721, 294.229, 16.9291
35.872, 362.345, 18.7842
36.023, 1136.25, 33.2756
36.174, 313.281, 17.4294
36.325, 593.409, 24.0408
36.476, 306.954, 17.3204
36.627, 284.29, 16.6066
36.778, 263.905, 16.0295
36.929, 395.099, 19.6297
37.08, 259.502, 15.9095
37.231, 274.327, 16.3342
37.382, 263.606, 16.041
37.533, 250.606, 15.6309
37.684, 267.484, 16.1576
37.835, 239.67, 15.2794
37.986, 257.134, 15.824
38.137, 250.436, 15.6203
38.288, 279.062, 16.4708
38.439, 286.573, 16.7115
38.59, 262.657, 16.0129
38.741, 249.039, 15.594
38.892, 267.352, 16.1497
39.043, 275.11, 16.3808
39.194, 348.583, 18.4724
39.345, 280.331, 16.4883
39.496, 231.023, 15.0052
39.647, 296.139, 16.9828
39.798, 1216.77, 34.5382
39.949, 436.932, 20.6167
40.1, 263.721, 16.048
40.251, 583.746, 23.8659
40.402, 311.129, 17.3906
40.553, 269.636, 16.1992
40.704, 307.371, 17.289
40.855, 293.127, 16.9218
41.006, 252.263, 15.6734
41.157, 383.015, 19.3177
41.308, 433.756, 20.5356
41.459, 255.441, 15.8099
41.61, 269.787, 16.2083
41.761, 264.541, 16.0385
41.912, 271.753, 16.297
42.063, 261.885, 15.9362
42.214, 364.834, 18.8878
42.365, 341.563, 18.203
42.516, 285.535, 16.7079
42.667, 282.593, 16.5927
42.818, 455.946, 21.05
42.969, 262.337, 15.9049
43.12, 249.221, 15.4249
43.271, 385.426, 19.2205
43.422, 588.808, 23.757
43.573, 267.603, 16.0193
43.724, 310.37, 17.2142
43.875, 270.46, 16.0471
44.026, 254.667, 15.5838
44.177, 239.568, 15.2112
44.328, 284.27, 16.6339
44.479, 315.63, 17.5329
44.63, 353.496, 18.5769
44.781, 224.494, 14.8015
44.932, 218.477, 14.5639
45.083, 222.094, 14.7073
45.234, 269.074, 16.1947
45.385, 239.823, 15.2892
45.536, 198.508, 13.8973
45.687, 288.465, 16.7649
45.838, 247.63, 15.5362
45.989, 201.265, 13.9878
46.14, 229.058, 14.9408
46.291, 235.607, 15.144
46.442, 229.149, 14.9468
46.593, 256.767, 15.8014
46.744, 249.061, 15.5649
46.895, 306.17, 17.2762
47.046, 381.563, 19.2691
47.197, 245.181, 15.4743
47.348, 253.956, 15.7482
47.499, 251.939, 15.714
47.65, 215.103, 14.5011
47.801, 187.976, 13.5299
47.952, 224.16, 14.8117
48.103, 231.425, 15.0314
48.254, 208.793, 14.2716
48.405, 222.501, 14.702
48.556, 253.374, 15.7424
48.707, 223.405, 14.7618
48.858, 251.853, 15.6782
49.009, 246.55, 15.5298
49.16, 274.643, 16.3531
49.311, 260.354, 15.9319
49.462, 209.264, 14.2705
49.613, 199.36, 13.957
49.764, 288.946, 16.7928
49.915, 222.543, 14.737
50.066, 216.259, 14.546
50.217, 226.497, 14.869
50.368, 269.192, 16.1725
50.519, 217.594, 14.5374
50.67, 236.017, 15.1704
50.821, 211.461, 14.3538
50.972, 233.339, 15.0606
51.123, 231.818, 15.0252
51.274, 223.014, 14.7359
51.425, 202.176, 14.0511
51.576, 233.282, 15.0884
51.727, 217.726, 14.5788
51.878, 199.53, 13.9689
52.029, 238.622, 15.2436
52.18, 211.15, 14.3658
52.331, 212.88, 14.4169
52.482, 215.187, 14.5068
52.633, 219.318, 14.62
52.784, 253.125, 15.7269
52.935, 239.62, 15.2453
53.086, 251.288, 15.4936
53.237, 246.157, 15.3534
53.388, 250.706, 15.5466
53.539, 231.288, 14.9595
53.69, 227.846, 14.7989
53.841, 269.419, 16.0992
53.992, 260.588, 15.8573
54.143, 221.596, 14.5473
54.294, 206.755, 14.0668
54.445, 216.683, 14.4443
54.596, 266.972, 16.1268
54.747, 207.532, 14.2187
54.898, 244.121, 15.4382
55.049, 214.54, 14.4631
55.2, 247.364, 15.5195
55.351, 209.49, 14.3193
55.502, 233.35, 15.0928
55.653, 257.858, 15.8386
55.804, 199.247, 13.949
55.955, 224.073, 14.7737
56.106, 224.42, 14.7965
56.257, 222.128, 14.7096
56.408, 214.41, 14.4873
56.559, 208.234, 14.2669
56.71, 205.47, 14.144
56.861, 187.876, 13.5578
57.012, 212.624, 14.3996
57.163, 188.718, 13.5833
57.314, 209.888, 14.3131
57.465, 212.437, 14.42
57.616, 193.328, 13.7382
57.767, 206.596, 14.188
57.918, 194.885, 13.8141
58.069, 209.647, 14.2967
58.22, 196.44, 13.8548
58.371, 217.074, 14.5679
58.522, 179.753, 13.2507
58.673, 208.584, 14.2908
58.824, 216.537, 14.5647
58.975, 196.053, 13.8621
59.126, 201.187, 14.0505
59.277, 199.537, 13.9694
59.428, 201.122, 14.0117
59.579, 187.483, 13.5295
59.73, 200.546, 14.0057
59.881, 208.328, 14.2733
60.032, 198.251, 13.9134
60.183, 181.992, 13.3434
60.334, 180.711, 13.2852
60.485, 180.378, 13.2967
60.636, 183.447, 13.414
60.787, 198.945, 13.9279
60.938, 184.057, 13.4228
61.089, 232.098, 15.0751
61.24, 207.698, 14.2636
61.391, 226.215, 14.8826
61.542, 193, 13.7149
61.693, 209.995, 14.3204
61.844, 177.725, 13.173
61.995, 220.752, 14.7814
62.146, 191.291, 13.6626
62.297, 174.816, 13.0655
62.448, 190.909, 13.6703
62.599, 171.412, 12.9567
62.75, 200.545, 14.0056
62.901, 208.94, 14.2485
63.052, 202.555, 13.9434
63.203, 176.664, 13.0585
63.354, 166.701, 12.6733
63.505, 169.794, 12.7979
63.656, 188.541, 13.4663
63.807, 188.981, 13.4634
63.958, 201.844, 13.9275
64.109, 163, 12.5749
64.26, 187.81, 13.553
64.411, 173.236, 13.0204
64.562, 186.737, 13.5464
64.713, 171.204, 12.9781
64.864, 168.936, 12.8805
65.015, 187.93, 13.5972
65.166, 174.665, 13.0908
65.317, 175.806, 13.1395
65.468, 164.976, 12.7654
65.619, 181.724, 13.396
65.77, 168.102, 12.8543
65.921, 158.794, 12.514
66.072, 163.124, 12.6601
66.223, 196.624, 13.9024
66.374, 181.789, 13.3645
66.525, 172.437, 13.0342
66.676, 158.591, 12.498
66.827, 180.377, 13.2967
66.978, 139.559, 11.7109
67.129, 184.888, 13.4834
67.28, 175.432, 13.1483
67.431, 154.717, 12.347
67.582, 169.55, 12.8898
67.733, 206.695, 14.2622
67.884, 161.125, 12.581
68.035, 181.368, 13.3697
68.186, 161.956, 12.6458
68.337, 158.645, 12.5022
68.488, 157.16, 12.4628
68.639, 153.091, 12.2959
68.79, 157.457, 12.4864
68.941, 135.102, 11.542
69.092, 179.756, 13.3235
69.243, 197.049, 13.9674
69.394, 148.746, 12.1444
69.545, 162.388, 12.6796
69.696, 149.478, 12.1636
69.847, 167.126, 12.8551
69.998, 154.53, 12.3716
70.0, 178.239, 13.2842