File: XRD/DWTR_IL/IDB data/IL_1.csv
twotheta, intensity, esd
5.0, 327.989, 17.9173
5.151, 317.615, 17.6157
5.302, 274.735, 16.3873
5.453, 261.988, 16.0016
5.604, 251.895, 15.7417
5.755, 239.451, 15.2963
5.906, 215.629, 14.5363
6.057, 218.937, 14.6269
6.208, 202.137, 14.0483
6.359, 202.613, 14.0813
6.51, 174.829, 13.0663
6.661, 199.424, 13.9613
6.812, 204.457, 14.1076
6.963, 186.957, 13.5266
7.114, 200.705, 14.0166
7.265, 213.058, 14.4287
7.416, 196.46, 13.856
7.567, 204.597, 14.1173
7.718, 223.152, 14.7771
7.869, 200.508, 14.0029
8.02, 239.156, 15.2775
8.171, 248.586, 15.5959
8.322, 242.255, 15.3816
8.473, 243.78, 15.4164
8.624, 251.515, 15.6569
8.775, 282.181, 16.5968
8.926, 282.739, 16.6296
9.077, 310.915, 17.4328
9.228, 314.264, 17.4837
9.379, 317.145, 17.5896
9.53, 334.494, 18.0847
9.681, 330.35, 17.966
9.832, 296.188, 16.9853
9.983, 317.493, 17.6089
10.134, 331.793, 17.9914
10.285, 333.41, 18.0525
10.436, 378.056, 19.1897
10.587, 4233.72, 64.3911
10.738, 363.743, 18.8562
10.889, 331.119, 17.9548
11.04, 372.557, 19.0836
11.191, 350.928, 18.4927
11.342, 285.264, 16.6917
11.493, 310.085, 17.3863
11.644, 317.75, 17.6231
11.795, 356.178, 18.6148
11.946, 331.482, 17.9745
12.097, 320.838, 17.6858
12.248, 369.754, 18.94
12.399, 341.718, 18.289
12.55, 354.087, 18.5563
12.701, 376.06, 19.0884
12.852, 304.565, 17.1037
13.003, 346.802, 18.1995
13.154, 329.121, 17.7166
13.305, 399.725, 19.5946
13.456, 32361.3, 175.942
13.607, 505.969, 22.0353
13.758, 393.291, 19.3726
13.909, 346.293, 18.1478
14.06, 368.876, 18.7479
14.211, 332.903, 17.8428
14.362, 492.067, 21.8272
14.513, 293.683, 16.8694
14.664, 304.031, 17.2101
14.815, 290.913, 16.8218
14.966, 261.921, 15.9678
15.117, 247.108, 15.5033
15.268, 284.273, 16.6053
15.419, 274.894, 16.3677
15.57, 282.79, 16.5754
15.721, 305.935, 17.2626
15.872, 303.901, 17.2027
16.023, 327.523, 17.8652
16.174, 305.533, 17.2125
16.325, 368.278, 18.9391
16.476, 387.157, 19.452
16.627, 358.068, 18.6373
16.778, 287.292, 16.7247
16.929, 249.722, 15.6059
17.08, 329.775, 17.9348
17.231, 386.25, 19.382
17.382, 515.629, 22.4348
17.533, 296.459, 17.0008
17.684, 280.187, 16.5369
17.835, 380.023, 19.24
17.986, 620.654, 24.5844
18.137, 280.66, 16.536
18.288, 324.787, 17.769
18.439, 248.559, 15.5637
18.59, 267.55, 16.1614
18.741, 253.931, 15.7464
18.892, 249.794, 15.6104
19.043, 241.942, 15.3617
19.194, 290.811, 16.8724
19.345, 249.293, 15.5488
19.496, 426.065, 20.3776
19.647, 345.849, 18.3529
19.798, 279.475, 16.5526
19.949, 362.971, 18.7909
20.1, 322.353, 17.7424
20.251, 259.605, 15.9156
20.402, 263.487, 16.0038
20.553, 241.409, 15.3279
20.704, 280.14, 16.5054
20.855, 235.476, 15.1668
21.006, 263.962, 16.0327
21.157, 299.192, 17.0735
21.308, 1322.81, 35.8618
21.459, 16156.2, 125.734
21.61, 327.279, 17.8519
21.761, 341.409, 18.2203
21.912, 3260.94, 56.4536
22.063, 267.715, 16.1126
22.214, 226.904, 14.8955
22.365, 198.905, 13.8909
22.516, 266.962, 16.1553
22.667, 229.97, 14.9683
22.818, 227.454, 14.8676
22.969, 209.288, 14.2061
23.12, 228.217, 14.7606
23.271, 187.895, 13.42
23.422, 180.234, 13.1439
23.573, 212.928, 14.2894
23.724, 201.49, 13.8699
23.875, 199.982, 13.7988
24.026, 183.126, 13.2149
24.177, 187.401, 13.4535
24.328, 212.223, 14.3722
24.479, 189.949, 13.6014
24.63, 204.073, 14.1147
24.781, 224.501, 14.8017
24.932, 186.434, 13.4536
25.083, 224.049, 14.7719
25.234, 289.562, 16.7999
25.385, 248.607, 15.5667
25.536, 290.981, 16.8257
25.687, 661.96, 25.3963
25.838, 225.209, 14.8162
25.989, 249.897, 15.5864
26.14, 221.266, 14.6845
26.291, 215.165, 14.4722
26.442, 236.959, 15.1993
26.593, 271.368, 16.2444
26.744, 293.835, 16.9061
26.895, 282.774, 16.603
27.046, 503.314, 22.1308
27.197, 322.382, 17.744
27.348, 317.473, 17.6078
27.499, 208.804, 14.3057
27.65, 203.374, 14.1002
27.801, 217.206, 14.5438
27.952, 1097.21, 32.7694
28.103, 207.015, 14.2165
28.254, 243.931, 15.4259
28.405, 276.933, 16.4021
28.556, 461.848, 21.2539
28.707, 264.397, 16.0591
28.858, 211.829, 14.3786
29.009, 1689.9, 40.6577
29.16, 229.842, 14.9599
29.311, 179.414, 13.2255
29.462, 201.481, 14.0027
29.613, 189.591, 13.6107
29.764, 219.633, 14.6407
29.915, 201.071, 14.008
30.066, 188.861, 13.5934
30.217, 207.951, 14.2472
30.368, 241.984, 15.3335
30.519, 212.742, 14.3744
30.67, 189.201, 13.5827
30.821, 882.449, 29.3221
30.972, 204.173, 14.088
31.123, 201.624, 14.0126
31.274, 200.617, 13.9764
31.425, 228.558, 14.9398
31.576, 168.856, 12.837
31.727, 186.483, 13.4923
31.878, 1367.83, 36.5741
32.029, 242.527, 15.3678
32.18, 389.135, 19.5022
32.331, 182.608, 13.3525
32.482, 206.388, 14.2071
32.633, 168.629, 12.8196
32.784, 153.43, 12.2442
32.935, 158.123, 12.3843
33.086, 196.823, 13.7121
33.237, 206.886, 14.0755
33.388, 230.46, 14.9057
33.539, 734.861, 26.665
33.69, 185.544, 13.3546
33.841, 183.775, 13.2964
33.992, 156.344, 12.2827
34.143, 158.551, 12.3051
34.294, 187.613, 13.3998
34.445, 192.608, 13.6183
34.596, 179.273, 13.2151
34.747, 178.302, 13.1794
34.898, 395.542, 19.6512
35.049, 372.582, 19.0598
35.2, 250.294, 15.6112
35.351, 287.832, 16.7846
35.502, 172.812, 12.9883
35.653, 179.035, 13.1976
35.804, 176.784, 13.1392
35.955, 1485.46, 38.0386
36.106, 177.582, 13.1622
36.257, 284.504, 16.6472
36.408, 160.559, 12.5367
36.559, 167.172, 12.783
36.71, 158.725, 12.4315
36.861, 204.519, 14.1456
37.012, 149.223, 12.0631
37.163, 157.427, 12.4062
37.314, 141.548, 11.7542
37.465, 136.071, 11.5407
37.616, 127.905, 11.1745
37.767, 135.452, 11.4882
37.918, 145.917, 11.9532
38.069, 135.534, 11.4951
38.22, 150.504, 12.1272
38.371, 127.109, 11.1476
38.522, 176.826, 13.1423
38.673, 142.968, 11.8314
38.824, 138.147, 11.6334
38.975, 155.861, 12.3597
39.126, 181.561, 13.3475
39.277, 163.346, 12.6392
39.428, 142.539, 11.7958
39.579, 150.376, 12.1168
39.73, 927.044, 30.1126
39.881, 542.022, 23.0228
40.032, 166.022, 12.7324
40.183, 289.656, 16.8337
40.334, 179.738, 13.2494
40.485, 154.89, 12.3215
40.636, 149.111, 12.0937
40.787, 154.083, 12.2573
40.938, 162.52, 12.6131
41.089, 169.418, 12.8796
41.24, 450.773, 21.0132
41.391, 152.763, 12.23
41.542, 157.908, 12.4056
41.693, 139.666, 11.6788
41.844, 156.242, 12.3512
41.995, 136.603, 11.6277
42.146, 203.009, 14.0749
42.297, 148.447, 12.0398
42.448, 187.976, 13.5649
42.599, 213.543, 14.4616
42.75, 321.893, 17.744
42.901, 156.459, 12.3299
43.052, 138.233, 11.5187
43.203, 199.842, 13.8887
43.354, 501.229, 21.9754
43.505, 141.816, 11.696
43.656, 178.925, 13.1184
43.807, 152.527, 12.0953
43.958, 152.822, 12.1187
44.109, 124.189, 10.9762
44.26, 186.836, 13.5179
44.411, 256.453, 15.8419
44.562, 224.097, 14.8397
44.713, 164.32, 12.7145
44.864, 113.931, 10.5777
45.015, 102.323, 10.0331
45.166, 131.487, 11.3581
45.317, 127.678, 11.1975
45.468, 112.616, 10.5469
45.619, 170.863, 12.9895
45.77, 202.52, 14.1089
45.921, 120.327, 10.8933
46.072, 126.763, 11.1603
46.223, 137.633, 11.6314
46.374, 139.533, 11.7086
46.525, 135.977, 11.5745
46.676, 223.62, 14.8408
46.827, 186.264, 13.5119
46.978, 234.915, 15.1938
47.129, 135.713, 11.552
47.28, 136.007, 11.577
47.431, 149.792, 12.1489
47.582, 117.604, 10.7352
47.733, 122.043, 10.9592
47.884, 113.964, 10.5808
48.035, 112.365, 10.5234
48.186, 119.49, 10.8621
48.337, 107.403, 10.2869
48.488, 101.805, 10.0307
48.639, 122.472, 10.9977
48.79, 129.728, 11.3337
48.941, 142.009, 11.8333
49.092, 192.602, 13.7913
49.243, 138.624, 11.7151
49.394, 123.954, 11.0862
49.545, 111.887, 10.5249
49.696, 204.927, 14.2421
49.847, 112.733, 10.5579
49.998, 124.812, 11.1185
50.0, 108.919, 10.3846