File: TGA-MS/DWTRTN.D/tic_front.csv
D:\GAILLARD\WALLACE_SAMUEL\DWTRTN.D  7 Sep 21   3:50 pm
Start of data points
0.0961,161598
0.516733,141636
0.93735,148678
1.35798,3570053
1.7786,32799
2.19923,32408
2.61985,33028
3.04048,32777
3.46112,35355
3.88173,32065
4.30237,33994
4.72298,32054
5.14362,32901
5.56423,34135
5.98487,31863
6.40548,40619
6.82612,32290
7.24673,32174
7.66737,31567
8.088,31916
8.50862,33921
8.92925,32364
9.34987,2860879
9.7705,32033
10.1911,32530
10.6118,31453
11.0324,32217
11.453,34699
11.8736,31803
12.2943,33311
12.7149,32093
13.1355,32384
13.5561,33783
13.9768,31401
14.3974,50689
14.818,31435
15.2386,32444
15.6593,32299
16.0799,31966
16.5005,34226
16.9211,31736
17.3418,2350123
17.7624,31638
18.183,31868
18.6036,32528
19.0243,32457
19.4449,35296
19.8655,31988
20.2861,33359
20.7068,31043
21.1274,32045
21.548,33525
21.9687,32058
22.3893,88486
22.8099,31743
23.2305,31975
23.6512,31794
24.0718,31747
24.4924,34277
24.913,31877
25.3337,1068741
25.7543,32036
26.1749,31606
26.5955,32688
27.0162,31726
27.4368,34909
27.8574,32260
28.278,31930
28.6987,32045
29.1193,31635
29.5399,34295
29.9605,31078
30.3812,225906
30.8018,31757
31.2224,32361
31.643,31660
32.0637,31776
32.4843,33878
32.9049,32937
33.3255,234195
33.7462,32165
34.1668,32391
34.5874,33128
35.0081,31959
35.4287,35378
35.8493,32487
36.2699,31275
36.6906,32483
37.1112,31273
37.5318,34286
37.9524,31407
38.373,705330
38.7937,31947
39.2143,30333
39.6349,31623
40.0556,31605
40.4762,34495
40.8968,29866
41.3174,46407
41.7381,31532
42.1587,31362
42.5793,32981
42.9999,31038
43.4206,35174
43.8412,32104
44.2618,31269
44.6824,32297
45.1031,31539
45.5237,34129
45.9443,31282
46.3649,1743960
46.7856,31958
47.2062,30703
47.6268,31917
48.0475,32565
48.4681,34250
48.8887,31349
49.3093,33117
49.73,31210
50.1506,31636
50.5712,32907
50.9918,31671
51.4125,38657
51.8331,31235
52.2537,31780
52.6743,31045
53.095,30515
53.5156,33814
53.9362,31494
54.3568,2891561
54.7775,31918
55.1981,31450
55.6187,32207
56.0393,32564
56.46,34266
56.8806,31486
57.3012,33760
57.7218,31442
58.1425,31195
58.5631,34030
58.9837,31389
59.4043,43893
59.825,31107
60.2456,31099
60.6662,31068
61.0869,31355
61.5075,33844
61.9281,30887
62.3487,3321303
62.7694,31151
63.19,31239
63.6106,31406
64.0312,31126
64.4518,33786
64.8725,31267
65.2931,32176
65.7137,30373
66.1343,31471
66.555,32710
66.9756,31452
67.3962,70876
67.8169,31174
68.2375,31048
68.6581,31077
69.0787,30204
69.4994,34176
69.92,31356
70.3406,2956787
70.7612,30898
71.1819,31652
71.6025,32144
72.0231,30461
72.4437,33703
72.8644,30428
73.285,29837
73.7056,31049
74.1262,30784
74.5469,33079
74.9675,31705
75.3881,220627
75.8088,31204
76.2294,29865
76.65,31017
77.0706,30689
77.4913,32403
77.9119,30634
78.3325,1396481
78.7531,30792
79.1737,30602
79.5944,30901
80.015,31564
80.4356,33523
80.8563,30396
81.2769,30081
81.6975,30342
82.1181,30166
82.5388,32035
82.9594,30211
83.38,503587
83.8006,29942
84.2213,31037
84.6419,31137
85.0625,30939
85.4831,33568
85.9038,30980
86.3244,166240
86.745,29915
87.1656,30596
87.5863,32485
88.0069,29249
88.4275,33784
88.8482,30883
89.2688,29903
89.6894,29990
90.11,30722
90.5307,31892
90.9513,30001
91.3719,1528981
91.7925,30947
92.2131,30033
92.6338,30445
93.0544,30321
93.475,32834
93.8957,30421
94.3163,37520
94.7369,30284
95.1575,29495
95.5782,31922
95.9988,29760
96.4194,35833
96.84,30860
97.2607,29687
97.6813,29589
98.1019,29536
98.5225,32012
98.9432,30068
99.3638,3066634
99.7844,29234
100.205,30096
100.626,29583
101.046,30070
101.467,31518
101.888,29954
102.308,30449
102.729,29241
103.149,30162
103.57,29871
103.991,30320
104.411,29352
104.832,29474
105.253,30531
105.673,29383
106.094,29593
106.514,30301
106.935,30298
107.356,29491
107.776,29390
108.197,30034
108.618,30196
109.038,29833
109.459,29934
109.879,30634
110.3,29980
110.721,30957
111.141,29819
111.562,29865
111.983,30381
112.403,30132
112.824,29750
113.244,31377
113.665,29938
114.086,31514
114.506,30957
114.927,30498
115.348,31158
115.768,30024
116.189,30845
116.609,30448
117.03,30657
117.451,31467
117.871,30537
118.292,31283
118.713,30564
119.133,29994
119.554,31312
119.974,32263
120.395,31029
120.816,31038
121.236,31915
121.657,31950
122.078,31512
122.498,31711
122.919,31373
123.339,31644
123.76,32079
124.181,31929
124.601,31941
124.987,32650