File: XRD/DWTR_FL/coarse-washed.xyd
    4.000     5027
    4.330     4804
    4.660     4725
    4.990     4601
    5.320     4415
    5.650     4463
    5.980     4281
    6.310     4120
    6.640     3818
    6.970     3804
    7.300     3556
    7.630     3485
    7.960     3385
    8.290     3271
    8.620     3161
    8.950     3051
    9.280     3026
    9.610     3100
    9.940     3010
   10.270     3039
   10.600     2913
   10.930     2891
   11.260     2882
   11.590     2895
   11.920     2852
   12.250     2780
   12.580     2695
   12.910     2633
   13.240     2711
   13.570     2593
   13.900     2571
   14.230     2527
   14.560     2464
   14.890     2384
   15.220     2396
   15.550     2327
   15.880     2439
   16.210     2460
   16.540     2381
   16.870     2382
   17.200     2247
   17.530     2327
   17.860     2255
   18.190     2220
   18.520     2293
   18.850     2199
   19.180     2114
   19.510     2162
   19.840     1941
   20.170     1995
   20.500     1975
   20.830     1923
   21.160     1968
   21.490     1871
   21.820     1880
   22.150     1845
   22.480     1731
   22.810     1719
   23.140     1649
   23.470     1613
   23.800     1652
   24.130     1568
   24.460     1577
   24.790     1596
   25.120     1521
   25.450     1562
   25.780     1497
   26.110     1405
   26.440     1492
   26.770     1390
   27.100     1336
   27.430     1301
   27.760     1229
   28.090     1238
   28.420     1195
   28.750     1192
   29.080     1094
   29.410     1144
   29.740     1070
   30.070     1039
   30.400     1057
   30.730     1021
   31.060      944
   31.390     1011
   31.720      993
   32.050      896
   32.380      899
   32.710      946
   33.040      826
   33.370      885
   33.700      869
   34.030      846
   34.360      825
   34.690      804
   35.020      810
   35.350      732
   35.680      831
   36.010      788
   36.340      775
   36.670      785
   37.000      769
   37.330      811
   37.660      733
   37.990      803
   38.320      786
   38.650      795
   38.980      788
   39.310      713
   39.640      723
   39.970      725
   40.300      721
   40.630      751
   40.960      706
   41.290      727
   41.620      681
   41.950      684
   42.280      701
   42.610      720
   42.940      673
   43.270      654
   43.600      687
   43.930      681
   44.260      675
   44.590      676
   44.920      644
   45.250      656
   45.580      652
   45.910      628
   46.240      632
   46.570      607
   46.900      582
   47.230      611
   47.560      646
   47.890      595
   48.220      614
   48.550      590
   48.880      568
   49.210      572
   49.540      564
   49.870      539
   50.200      567
   50.530      520
   50.860      532
   51.190      525
   51.520      535
   51.850      528
   52.180      548
   52.510      545
   52.840      518
   53.170      489
   53.500      537
   53.830      477
   54.160      523
   54.490      510
   54.820      487
   55.150      491
   55.480      475
   55.810      465
   56.140      525
   56.470      499
   56.800      459
   57.130      501
   57.460      462
   57.790      475
   58.120      492
   58.450      469
   58.780      448
   59.110      463
   59.440      482
   59.770      457
   60.100      445
   60.430      446
   60.760      447
   61.090      413
   61.420      455
   61.750      443
   62.080      441
   62.410      466
   62.740      481
   63.070      419
   63.400      451
   63.730      459
   64.060      474
   64.390      447
   64.720      441
   65.050      435
   65.380      421
   65.710      425
   66.040      460
   66.370      432
   66.700      437
   67.030      428
   67.360      435
   67.690      406
   68.020      403
   68.350      401
   68.680      401
   69.010      429
   69.340      394
   69.670      420
   70.000      394
   70.330      405
   70.660      394
   70.990      406
   71.320      414
   71.650      409
   71.980      387
   72.310      364
   72.640      396
   72.970      391
   73.300      383
   73.630      378
   73.960      386
   74.290      360
   74.620      347
   74.950      371
   75.280      354
   75.610      361
   75.940      376
   76.270      376
   76.600      400
   76.930      374
   77.260      358
   77.590      373
   77.920      399
   78.250      376
   78.580      357
   78.910      353
   79.240      359
   79.570      306
   79.900      387
   80.230      343
   80.560      345
   80.890      356
   81.220      355
   81.550      314
   81.880      348
   82.210      351
   82.540      355
   82.870      346
   83.200      319
   83.530      324
   83.860      330
   84.190      316
   84.520      326
   84.850      314
   85.180      327
   85.510      293
   85.840      320
   86.170      300
   86.500      325
   86.830      302
   87.160      328
   87.490      307
   87.820      294
   88.150      318
   88.480      292
   88.810      302
   89.140      283
   89.470      279
   89.800      292
   90.130      305
   90.460      314
   90.790      321
   91.120      293
   91.450      293
   91.780      291
   92.110      305
   92.440      305
   92.770      286
   93.100      300
   93.430      303
   93.760      294
   94.090      260
   94.420      292
   94.750      299
   95.080      294
   95.410      299
   95.740      260
   96.070      276
   96.400      268
   96.730      256
   97.060      299
   97.390      297
   97.720      286
   98.050      289
   98.380      295
   98.710      280
   99.040      288
   99.370      305
   99.700      256
  100.030      278
  100.105      264