File: XRD/DWTR_FL/fine-washed.xyd
    4.000     2387
    4.330     2213
    4.660     2177
    4.990     2060
    5.320     1992
    5.650     2015
    5.980     1923
    6.310     1836
    6.640     1706
    6.970     1690
    7.300     1585
    7.630     1571
    7.960     1559
    8.290     1434
    8.620     1402
    8.950     1442
    9.280     1350
    9.610     1326
    9.940     1326
   10.270     1317
   10.600     1255
   10.930     1286
   11.260     1253
   11.590     1195
   11.920     1240
   12.250     1222
   12.580     1138
   12.910     1147
   13.240     1099
   13.570     1107
   13.900     1144
   14.230     1115
   14.560     1116
   14.890     1085
   15.220     1020
   15.550     1032
   15.880     1104
   16.210     1056
   16.540     1018
   16.870     1044
   17.200      982
   17.530      953
   17.860      983
   18.190      935
   18.520      928
   18.850      984
   19.180      909
   19.510      941
   19.840      928
   20.170      894
   20.500      950
   20.830     5671
   21.160      793
   21.490      818
   21.820      771
   22.150      811
   22.480      800
   22.810      764
   23.140      754
   23.470      741
   23.800      753
   24.130      712
   24.460      708
   24.790      694
   25.120      704
   25.450      663
   25.780      678
   26.110      664
   26.440     3360
   26.770      809
   27.100      584
   27.430      623
   27.760      581
   28.090      559
   28.420      548
   28.750      528
   29.080      533
   29.410      550
   29.740      486
   30.070      498
   30.400      460
   30.730      484
   31.060      466
   31.390      477
   31.720      444
   32.050      414
   32.380      434
   32.710      427
   33.040      403
   33.370      439
   33.700      437
   34.030      409
   34.360      441
   34.690      390
   35.020      393
   35.350      399
   35.680      385
   36.010      399
   36.340      452
   36.670      408
   37.000      403
   37.330      409
   37.660      413
   37.990      398
   38.320      397
   38.650      355
   38.980      419
   39.310      819
   39.640      386
   39.970      381
   40.300      676
   40.630      384
   40.960      411
   41.290      382
   41.620      371
   41.950      351
   42.280      545
   42.610      353
   42.940      327
   43.270      373
   43.600      326
   43.930      356
   44.260      341
   44.590      350
   44.920      356
   45.250      342
   45.580      354
   45.910      328
   46.240      299
   46.570      310
   46.900      318
   47.230      299
   47.560      308
   47.890      325
   48.220      310
   48.550      271
   48.880      268
   49.210      266
   49.540      287
   49.870      332
   50.200      447
   50.530      360
   50.860      266
   51.190      264
   51.520      267
   51.850      257
   52.180      258
   52.510      287
   52.840      243
   53.170      276
   53.500      266
   53.830      270
   54.160      243
   54.490      255
   54.820     1162
   55.150      381
   55.480      244
   55.810      228
   56.140      236
   56.470      244
   56.800      223
   57.130      276
   57.460      239
   57.790      247
   58.120      240
   58.450      213
   58.780      230
   59.110      236
   59.440      265
   59.770      626
   60.100      263
   60.430      227
   60.760      220
   61.090      233
   61.420      217
   61.750      220
   62.080      214
   62.410      219
   62.740      208
   63.070      231
   63.400      230
   63.730      223
   64.060      282
   64.390      234
   64.720      205
   65.050      240
   65.380      215
   65.710      279
   66.040      206
   66.370      208
   66.700      204
   67.030      197
   67.360      198
   67.690     1093
   68.020     1188
   68.350      390
   68.680      211
   69.010      198
   69.340      206
   69.670      179
   70.000      218
   70.330      190
   70.660      184
   70.990      211
   71.320      199
   71.650      177
   71.980      203
   72.310      174
   72.640      186
   72.970      165
   73.300      493
   73.630      191
   73.960      185
   74.290      165
   74.620      162
   74.950      174
   75.280      166
   75.610      613
   75.940      168
   76.270      179
   76.600      173
   76.930      183
   77.260      171
   77.590      392
   77.920      159
   78.250      179
   78.580      157
   78.910      153
   79.240      165
   79.570      164
   79.900      412
   80.230      133
   80.560      160
   80.890      195
   81.220      243
   81.550      219
   81.880      168
   82.210      148
   82.540      157
   82.870      126
   83.200      146
   83.530      141
   83.860      211
   84.190      126
   84.520      146
   84.850      169
   85.180      125
   85.510      132
   85.840      124
   86.170      124
   86.500      135
   86.830      121
   87.160      127
   87.490      145
   87.820      118
   88.150      139
   88.480      125
   88.810      116
   89.140      129
   89.470      122
   89.800      112
   90.130      127
   90.460      113
   90.790      359
   91.120      115
   91.450      106
   91.780      132
   92.110      106
   92.440      112
   92.770      139
   93.100      106
   93.430      101
   93.760      112
   94.090      107
   94.420      209
   94.750      139
   95.080      187
   95.410      116
   95.740      127
   96.070      259
   96.400      109
   96.730      117
   97.060       97
   97.390      112
   97.720      107
   98.050      104
   98.380      115
   98.710      188
   99.040      109
   99.370      115
   99.700       97
  100.030       98
  100.105       98