File: XRD/DWTR_FL/original_unwashed.xyd
    0.000        6
    0.360        7
    0.720        6
    1.080      119
    1.440     6494
    1.800     3939
    2.160     3091
    2.520     2354
    2.880     2059
    3.240     1802
    3.600     1688
    3.960     1533
    4.320     1422
    4.680     1344
    5.040     1247
    5.400     1246
    5.760     1199
    6.120     1122
    6.480     1106
    6.840     1034
    7.200      993
    7.560      985
    7.920      896
    8.280      915
    8.640      854
    9.000      808
    9.360      800
    9.720      789
   10.080      784
   10.440      807
   10.800      739
   11.160      732
   11.520      758
   11.880      699
   12.240      722
   12.600      710
   12.960      667
   13.320      656
   13.680      708
   14.040      609
   14.400      643
   14.760      671
   15.120      621
   15.480      633
   15.840      589
   16.200      601
   16.560      616
   16.920      600
   17.280      562
   17.640      598
   18.000      625
   18.360      576
   18.720      566
   19.080      539
   19.440      570
   19.800      588
   20.160      510
   20.520      541
   20.880      694
   21.240      469
   21.600      459
   21.960      486
   22.320      436
   22.680      451
   23.040      436
   23.400      476
   23.760      426
   24.120      407
   24.480      409
   24.840      387
   25.200      391
   25.560      407
   25.920      400
   26.280      407
   26.640     1922
   27.000      373
   27.360      341
   27.720      369
   28.080      362
   28.440      307
   28.800      352
   29.160      307
   29.520      314
   29.880      288
   30.240      293
   30.600      296
   30.960      279
   31.320      265
   31.680      258
   32.040      225
   32.400      255
   32.760      256
   33.120      262
   33.480      248
   33.840      253
   34.200      275
   34.560      233
   34.920      239
   35.280      213
   35.640      236
   36.000      233
   36.360      258
   36.720      232
   37.080      220
   37.440      216
   37.800      232
   38.160      237
   38.520      216
   38.880      252
   39.240      231
   39.600      223
   39.960      212
   40.320      251
   40.680      205
   41.040      222
   41.400      209
   41.760      210
   42.120      214
   42.480      330
   42.840      203
   43.200      182
   43.560      192
   43.920      204
   44.280      210
   44.640      195
   45.000      191
   45.360      197
   45.720      339
   46.080      196
   46.440      188
   46.800      165
   47.160      177
   47.520      180
   47.880      178
   48.240      169
   48.600      167
   48.960      159
   49.320      160
   49.680      174
   50.040      544
   50.400      156
   50.760      160
   51.120      144
   51.480      148
   51.840      138
   52.200      149
   52.560      146
   52.920      151
   53.280      146
   53.640      146
   54.000      159
   54.360      147
   54.720      199
   55.080      152
   55.440      138
   55.800      134
   56.160      152
   56.520      129
   56.880      128
   57.240      146
   57.600      134
   57.960      133
   58.320      142
   58.680      126
   59.040      114
   59.400      116
   59.760      159
   60.120      125
   60.480      130
   60.840      138
   61.200      132
   61.560      130
   61.920      126
   62.280      131
   62.640      132
   63.000      140
   63.360      110
   63.720      131
   64.080      120
   64.440      115
   64.800      132
   65.160      122
   65.520      135
   65.880      127
   66.240      127
   66.600      127
   66.960      123
   67.320      138
   67.680      368
   68.040      294
   68.400      131
   68.760      109
   69.120      128
   69.480      108
   69.840      108
   70.200      112
   70.560      109
   70.920       97
   71.280      101
   71.640      125
   72.000      104
   72.360       99
   72.720      116
   73.080      103
   73.440      131
   73.800      100
   74.160       96
   74.520      104
   74.880      104
   75.240      102
   75.600      183
   75.960      106
   76.320       82
   76.680      103
   77.040      106
   77.400       91
   77.760      102
   78.120       85
   78.480       96
   78.840      104
   79.200       83
   79.560       67
   79.920      147
   80.280      107
   80.640       94
   81.000      132
   81.360      152
   81.720      104
   82.080      104
   82.440      108
   82.800       84
   83.160      102
   83.520       90
   83.880       97
   84.240       79
   84.600       76
   84.960       86
   85.320       82
   85.680       83
   86.040       77
   86.400       80
   86.760       83
   87.120       80
   87.480       90
   87.840       80
   88.200       95
   88.560       74
   88.920       74
   89.280       82
   89.640       79
   90.000       68
   90.360       81
   90.720      140
   91.080       86
   91.440       87
   91.800       79
   92.160       82
   92.520       92
   92.880       74
   93.240       77
   93.600       83
   93.960       74
   94.320       75
   94.680       99
   95.040       99
   95.400       83
   95.760       70
   96.120       94
   96.480       76
   96.840       72
   97.200       66
   97.560       74
   97.920       80
   98.280       59
   98.640      100
   99.000       63
   99.360       68
   99.720       82
  100.080       60
  100.440       74
  100.800       67
  101.160       76
  101.520       72
  101.880       66
  102.240       80
  102.600       66
  102.960       61
  103.320       70
  103.680       82
  104.040       72
  104.115       81