File: XRD/DWTR_FL/original-unwashed-rep.xyd
    4.000     4278
    4.330     3991
    4.660     3593
    4.990     3539
    5.320     3391
    5.650     3363
    5.980     3090
    6.310     2953
    6.640     2757
    6.970     2619
    7.300     2607
    7.630     2489
    7.960     2399
    8.290     2343
    8.620     2260
    8.950     2222
    9.280     2130
    9.610     2147
    9.940     2048
   10.270     2057
   10.600     2028
   10.930     2024
   11.260     1953
   11.590     1947
   11.920     1891
   12.250     1971
   12.580     1801
   12.910     1725
   13.240     1733
   13.570     1707
   13.900     1684
   14.230     1627
   14.560     1659
   14.890     1634
   15.220     1594
   15.550     1581
   15.880     1687
   16.210     1617
   16.540     1556
   16.870     1496
   17.200     1499
   17.530     1540
   17.860     1457
   18.190     1526
   18.520     1491
   18.850     1525
   19.180     1479
   19.510     1477
   19.840     1410
   20.170     1398
   20.500     1411
   20.830     2711
   21.160     1356
   21.490     1315
   21.820     1330
   22.150     1332
   22.480     1275
   22.810     1218
   23.140     1259
   23.470     1150
   23.800     1176
   24.130     1181
   24.460     1121
   24.790     1087
   25.120     1145
   25.450     1055
   25.780     1061
   26.110     1088
   26.440     1190
   26.770     1290
   27.100     1019
   27.430      964
   27.760      945
   28.090      968
   28.420      932
   28.750      964
   29.080      850
   29.410      856
   29.740      843
   30.070      854
   30.400      871
   30.730      795
   31.060      813
   31.390      796
   31.720      750
   32.050      716
   32.380      751
   32.710      711
   33.040      731
   33.370      693
   33.700      732
   34.030      701
   34.360      713
   34.690      665
   35.020      684
   35.350      652
   35.680      663
   36.010      708
   36.340      638
   36.670      958
   37.000      637
   37.330      623
   37.660      645
   37.990      689
   38.320      659
   38.650      627
   38.980      620
   39.310      659
   39.640      708
   39.970      665
   40.300      880
   40.630      616
   40.960      607
   41.290      651
   41.620      617
   41.950      559
   42.280      616
   42.610      666
   42.940      604
   43.270      581
   43.600      605
   43.930      604
   44.260      590
   44.590      576
   44.920      581
   45.250      570
   45.580      541
   45.910     1113
   46.240      559
   46.570      551
   46.900      524
   47.230      545
   47.560      538
   47.890      464
   48.220      498
   48.550      497
   48.880      469
   49.210      498
   49.540      494
   49.870      507
   50.200     2093
   50.530      464
   50.860      464
   51.190      416
   51.520      421
   51.850      463
   52.180      429
   52.510      466
   52.840      416
   53.170      428
   53.500      411
   53.830      378
   54.160      448
   54.490      401
   54.820      415
   55.150      416
   55.480      492
   55.810      403
   56.140      370
   56.470      406
   56.800      380
   57.130      363
   57.460      397
   57.790      387
   58.120      398
   58.450      385
   58.780      406
   59.110      370
   59.440      370
   59.770      369
   60.100     1428
   60.430      373
   60.760      372
   61.090      360
   61.420      382
   61.750      412
   62.080      375
   62.410      368
   62.740      332
   63.070      358
   63.400      344
   63.730      345
   64.060      430
   64.390      356
   64.720      362
   65.050      366
   65.380      378
   65.710      366
   66.040      333
   66.370      368
   66.700      323
   67.030      325
   67.360      342
   67.690      390
   68.020      349
   68.350      812
   68.680      354
   69.010      343
   69.340      312
   69.670      319
   70.000      322
   70.330      329
   70.660      319
   70.990      324
   71.320      302
   71.650      309
   71.980      296
   72.310      288
   72.640      289
   72.970      302
   73.300      309
   73.630      531
   73.960      291
   74.290      280
   74.620      287
   74.950      292
   75.280      272
   75.610      292
   75.940      282
   76.270      295
   76.600      249
   76.930      275
   77.260      261
   77.590      279
   77.920      297
   78.250      276
   78.580      257
   78.910      265
   79.240      266
   79.570      270
   79.900      310
   80.230      351
   80.560      249
   80.890      240
   81.220      426
   81.550      404
   81.880      218
   82.210      240
   82.540      247
   82.870      238
   83.200      236
   83.530      224
   83.860      280
   84.190      226
   84.520      236
   84.850      248
   85.180      227
   85.510      222
   85.840      215
   86.170      213
   86.500      224
   86.830      218
   87.160      246
   87.490      206
   87.820      212
   88.150      212
   88.480      228
   88.810      206
   89.140      205
   89.470      215
   89.800      198
   90.130      208
   90.460      202
   90.790      221
   91.120      239
   91.450      191
   91.780      208
   92.110      193
   92.440      201
   92.770      219
   93.100      206
   93.430      198
   93.760      204
   94.090      203
   94.420      187
   94.750      364
   95.080      207
   95.410      226
   95.740      181
   96.070      226
   96.400      320
   96.730      205
   97.060      188
   97.390      186
   97.720      197
   98.050      184
   98.380      162
   98.710      175
   99.040      203
   99.370      178
   99.700      174
  100.030      184
  100.105      206