File: TGA-MS/DWTRNC.D/tic_front.csv
D:\GAILLARD\WALLACE_SAMUEL\DWTRNC.D 22 Sep 21  12:50 pm
Start of data points
0.0960333,142138
0.516667,133703
0.937283,133921
1.35792,3192587
1.77853,29602
2.19917,29811
2.61978,30473
3.04042,30076
3.46103,32687
3.88167,30487
4.3023,31586
4.72292,29886
5.14355,30318
5.56417,30819
5.9848,29818
6.40542,36352
6.82605,29756
7.24667,29587
7.6673,29705
8.08792,30723
8.50855,31657
8.92918,30438
9.3498,2465096
9.77043,30128
10.1911,30135
10.6117,30111
11.0323,30061
11.4529,32477
11.8736,30740
12.2942,32432
12.7148,29421
13.1354,30097
13.5561,31450
13.9767,30024
14.3973,45892
14.8179,29690
15.2386,30256
15.6592,30128
16.0798,30733
16.5004,31787
16.9211,29861
17.3417,2115591
17.7623,30453
18.183,29744
18.6036,29730
19.0242,30387
19.4448,33450
19.8655,30627
20.2861,30321
20.7067,30377
21.1273,30683
21.548,31409
21.9686,29833
22.3892,76400
22.8098,30037
23.2305,29930
23.6511,30357
24.0717,29664
24.4923,31760
24.913,30107
25.3336,1013334
25.7542,30637
26.1748,30555
26.5955,30311
27.0161,30733
27.4367,32968
27.8573,30425
28.278,30226
28.6986,30375
29.1192,29982
29.5398,32228
29.9605,29787
30.3811,190456
30.8017,30287
31.2224,29889
31.643,30278
32.0636,29992
32.4842,31711
32.9049,29984
33.3255,229003
33.7461,29824
34.1667,29545
34.5874,31413
35.008,29561
35.4286,32805
35.8492,30892
36.2699,29290
36.6905,30180
37.1111,30566
37.5317,32324
37.9524,29697
38.373,579768
38.7936,29745
39.2142,30145
39.6349,30414
40.0555,31080
40.4761,32829
40.8967,30395
41.3174,44713
41.738,29070
42.1586,29846
42.5792,31526
42.9999,29655
43.4205,33100
43.8411,30325
44.2617,29821
44.6824,30070
45.103,29493
45.5236,32155
45.9443,30351
46.3649,1468704
46.7855,29777
47.2061,29597
47.6268,29961
48.0474,29866
48.468,31618
48.8886,30151
49.3093,31091
49.7299,29496
50.1505,29303
50.5711,31522
50.9918,29634
51.4124,34160
51.833,29463
52.2536,29764
52.6743,29899
53.0949,29089
53.5155,32092
53.9361,29565
54.3568,2426332
54.7774,30188
55.198,29756
55.6186,29747
56.0393,29977
56.4599,31378
56.8805,29392
57.3012,31252
57.7218,28520
58.1424,29815
58.563,30321
58.9837,29293
59.4043,39718
59.8249,29067
60.2455,29642
60.6662,29846
61.0868,29115
61.5074,30668
61.928,30305
62.3487,2845980
62.7693,28926
63.1899,30035
63.6105,29340
64.0311,29539
64.4518,31750
64.8724,29932
65.293,30327
65.7137,29807
66.1343,29284
66.5549,31009
66.9755,29407
67.3962,57315
67.8168,29227
68.2374,29193
68.658,29740
69.0787,28934
69.4993,30996
69.9199,29478
70.3406,2369375
70.7612,28988
71.1818,29499
71.6024,28998
72.023,29140
72.4437,31787
72.8643,28817
73.2849,29957
73.7056,29547
74.1262,28975
74.5468,30161
74.9674,29067
75.3881,153863
75.8087,28620
76.2293,29248
76.6499,29293
77.0705,29792
77.4912,30456
77.9118,29271
78.3324,1234833
78.7531,28860
79.1737,29155
79.5943,29547
80.0149,29144
80.4356,31713
80.8562,29234
81.2768,28382
81.6974,28365
82.1181,28551
82.5387,30775
82.9593,27935
83.38,479358
83.8006,29571
84.2212,29521
84.6418,28825
85.0624,28769
85.4831,31300
85.9037,28161
86.3243,172459
86.745,28575
87.1656,28977
87.5862,29636
88.0068,28686
88.4275,31970
88.8481,28257
89.2687,28452
89.6893,28635
90.1099,29016
90.5306,30517
90.9512,28079
91.3718,1228549
91.7925,29230
92.2131,27700
92.6337,28081
93.0543,27980
93.475,30540
93.8956,28648
94.3162,36793
94.7368,29057
95.1575,28843
95.5781,28893
95.9987,28770
96.4194,32136
96.84,27943
97.2606,28850
97.6812,28313
98.1018,27969
98.5225,29174
98.9431,27485
99.3637,2455315
99.7844,28737
100.205,28140
100.626,28835
101.046,28041
101.467,29958
101.887,27731
102.308,27819
102.729,28989
103.149,27720
103.57,28137
103.991,29081
104.411,28600
104.832,28621
105.252,28779
105.673,29126
106.094,28752
106.514,28553
106.935,28601
107.356,28955
107.776,28763
108.197,29276
108.618,28415
109.038,29020
109.459,28244
109.879,28848
110.3,28837
110.721,29625
111.141,28985
111.562,29807
111.983,29837
112.403,30201
112.824,29008
113.244,29936
113.665,29914
114.086,29498
114.506,29751
114.927,29672
115.348,29953
115.768,30005
116.189,30204
116.609,29917
117.03,30213
117.451,30297
117.871,30315
118.292,30088
118.713,29626
119.133,30206
119.554,30334
119.974,30875
120.395,29538
120.816,29801
121.236,30029
121.657,30546
122.078,31141
122.498,30419
122.919,30349
123.339,30812
123.76,31058
124.181,30608
124.601,31225
124.987,30700