File: TGA-MS/DWTRWY.D/tic_front.csv
D:\GAILLARD\WALLACE_SAMUEL\DWTRWY.D  7 Sep 21  10:11 am
Start of data points
0.0960333,161385
0.516667,139068
0.9373,149281
1.35792,2953177
1.77855,35880
2.19917,37080
2.6198,35954
3.04042,36542
3.46105,39193
3.88167,35647
4.3023,37457
4.72293,36062
5.14355,36252
5.56418,36651
5.9848,35169
6.40543,44067
6.82605,34612
7.24668,34407
7.6673,34893
8.08793,34618
8.50855,37941
8.92918,35564
9.34982,2771870
9.77043,35545
10.1911,35435
10.6117,35485
11.0323,34391
11.4529,38919
11.8736,35036
12.2942,36047
12.7148,34646
13.1354,34614
13.5561,37595
13.9767,34471
14.3973,62277
14.818,34954
15.2386,33378
15.6592,34862
16.0798,34825
16.5005,37848
16.9211,34616
17.3417,2295454
17.7623,34867
18.183,34642
18.6036,34934
19.0242,34717
19.4448,38878
19.8655,33958
20.2861,34766
20.7067,34291
21.1273,34230
21.548,37203
21.9686,33487
22.3892,102477
22.8098,33857
23.2305,34942
23.6511,34860
24.0717,33454
24.4923,37567
24.913,34084
25.3336,1079554
25.7542,34895
26.1748,33605
26.5955,34500
27.0161,34775
27.4367,39155
27.8574,34194
28.278,33326
28.6986,34546
29.1192,34733
29.5399,36681
29.9605,34351
30.3811,247653
30.8017,34470
31.2224,33833
31.643,34450
32.0636,33561
32.4842,37174
32.9049,33814
33.3255,237926
33.7461,34205
34.1667,33723
34.5874,36504
35.008,33442
35.4286,39379
35.8492,34018
36.2699,34037
36.6905,34077
37.1111,34026
37.5317,36942
37.9524,34136
38.373,775474
38.7936,34012
39.2142,33064
39.6349,33979
40.0555,33515
40.4761,37036
40.8968,33208
41.3174,47001
41.738,33733
42.1586,33519
42.5793,34526
42.9999,33127
43.4205,42617
43.8411,32706
44.2617,33791
44.6824,33103
45.103,32978
45.5236,35420
45.9443,32428
46.3649,1885886
46.7855,33835
47.2061,32301
47.6268,33067
48.0474,32571
48.468,36406
48.8886,34154
49.3093,34120
49.7299,33652
50.1505,33317
50.5711,35629
50.9918,32837
51.4124,44610
51.833,32857
52.2536,33440
52.6743,33572
53.0949,33660
53.5155,35968
53.9362,34168
54.3568,2884496
54.7774,34063
55.198,34096
55.6187,33869
56.0393,33064
56.4599,37458
56.8805,33535
57.3012,34989
57.7218,34479
58.1424,34080
58.563,37161
58.9837,33273
59.4043,48934
59.8249,32962
60.2455,33295
60.6662,34012
61.0868,33457
61.5074,35419
61.928,33138
62.3487,3176361
62.7693,33575
63.1899,33063
63.6105,34477
64.0312,32992
64.4518,37126
64.8724,33342
65.293,35048
65.7137,33271
66.1343,32294
66.5549,35727
66.9755,33687
67.3962,71395
67.8168,33723
68.2374,33057
68.6581,33489
69.0787,33196
69.4993,35975
69.9199,33173
70.3406,2579153
70.7612,33538
71.1818,33282
71.6024,34107
72.023,33619
72.4437,35712
72.8643,33020
73.2849,32966
73.7056,32409
74.1262,32695
74.5468,35140
74.9674,32058
75.3881,164454
75.8087,33750
76.2293,32765
76.6499,34044
77.0706,32285
77.4912,34313
77.9118,32579
78.3324,1056956
78.7531,32170
79.1737,33599
79.5943,34048
80.0149,32827
80.4356,36108
80.8562,32966
81.2768,32091
81.6975,32813
82.1181,32761
82.5387,33814
82.9593,32542
83.38,514956
83.8006,32874
84.2212,31864
84.6418,32399
85.0624,31862
85.4831,34805
85.9037,32153
86.3243,168789
86.745,32005
87.1656,31857
87.5862,33416
88.0068,32084
88.4275,35817
88.8481,31975
89.2687,31512
89.6893,31714
90.11,31519
90.5306,33086
90.9512,31513
91.3718,1533961
91.7925,32194
92.2131,31944
92.6337,31407
93.0543,31251
93.475,34781
93.8956,31249
94.3162,39551
94.7369,31704
95.1575,31909
95.5781,33312
95.9987,31517
96.4194,36889
96.84,31738
97.2606,31121
97.6812,32559
98.1018,32081
98.5225,32769
98.9431,31564
99.3637,2932003
99.7844,30826
100.205,30667
100.626,31523
101.046,31486
101.467,34463
101.887,31821
102.308,32355
102.729,31024
103.149,31424
103.57,31968
103.991,31576
104.411,31477
104.832,31344
105.253,31778
105.673,31628
106.094,31455
106.514,32166
106.935,32281
107.356,31299
107.776,31185
108.197,32169
108.618,31771
109.038,31442
109.459,32138
109.879,32040
110.3,32258
110.721,31409
111.141,32050
111.562,32539
111.983,32678
112.403,32690
112.824,32960
113.244,32991
113.665,32419
114.086,32659
114.506,32617
114.927,31680
115.348,32914
115.768,32827
116.189,32500
116.609,32536
117.03,31959
117.451,32863
117.871,32709
118.292,32651
118.713,33399
119.133,32379
119.554,32577
119.974,33726
120.395,32696
120.816,32461
121.236,31590
121.657,32473
122.078,31812
122.498,32017
122.919,33459
123.339,32794
123.76,32041
124.181,33072
124.601,32618
124.987,33409