File: TGA-MS/DWTRMN.D/CHROMTAB.CSV
"Path","File","Date Acquired","Sample","Misc"
"C:\Users\Admin\OneDrive - Northwestern University\DWTR-SERDP PROJECT'S DOCUMENTS-selected\Data and Analysis\Raw Data\TGA-MS\2021\","DWTRMN.D","22 Sep 2021  10:04    "," "," "
"TIC: DWTRMN.D\data.ms"
0.096,140978.000
0.517,128980.000
0.937,134330.000
1.358,3300987.000
1.779,30941.000
2.199,32003.000
2.620,31141.000
3.040,31162.000
3.461,33593.000
3.882,31740.000
4.302,32448.000
4.723,31010.000
5.144,30655.000
5.564,32753.000
5.985,30947.000
6.405,38728.000
6.826,30526.000
7.247,31478.000
7.667,31147.000
8.088,30937.000
8.509,32527.000
8.929,31330.000
9.350,2337165.000
9.770,31002.000
10.191,30386.000
10.612,31336.000
11.032,31101.000
11.453,33507.000
11.874,31972.000
12.294,31518.000
12.715,31104.000
13.135,30815.000
13.556,33216.000
13.977,30894.000
14.397,48243.000
14.818,30531.000
15.239,30375.000
15.659,30086.000
16.080,31010.000
16.500,32190.000
16.921,30856.000
17.342,1905384.000
17.762,30372.000
18.183,30174.000
18.604,31086.000
19.024,30765.000
19.445,33968.000
19.865,30895.000
20.286,30900.000
20.707,31310.000
21.127,30426.000
21.548,31770.000
21.969,30718.000
22.389,76682.000
22.810,30755.000
23.230,30153.000
23.651,30972.000
24.072,30380.000
24.492,32868.000
24.913,31011.000
25.334,974602.000
25.754,30657.000
26.175,30280.000
26.595,30998.000
27.016,29887.000
27.437,32992.000
27.857,29869.000
28.278,29985.000
28.699,30424.000
29.119,30914.000
29.540,31901.000
29.960,30699.000
30.381,187707.000
30.802,30754.000
31.222,30036.000
31.643,30333.000
32.064,30119.000
32.484,32294.000
32.905,30182.000
33.325,236289.000
33.746,30691.000
34.167,30458.000
34.587,31333.000
35.008,30971.000
35.429,33244.000
35.849,30492.000
36.270,29810.000
36.690,29947.000
37.111,30691.000
37.532,32554.000
37.952,30217.000
38.373,613765.000
38.794,30442.000
39.214,30688.000
39.635,30646.000
40.055,29940.000
40.476,33014.000
40.897,30119.000
41.317,44994.000
41.738,30652.000
42.159,30239.000
42.579,30625.000
43.000,29448.000
43.420,34674.000
43.841,30279.000
44.262,29744.000
44.682,30665.000
45.103,29494.000
45.524,31644.000
45.944,30159.000
46.365,1507300.000
46.785,29685.000
47.206,29729.000
47.627,29826.000
48.047,29754.000
48.468,32510.000
48.889,29701.000
49.309,31638.000
49.730,30423.000
50.150,30388.000
50.571,31585.000
50.992,30162.000
51.412,35339.000
51.833,30464.000
52.254,29318.000
52.674,30692.000
53.095,29541.000
53.515,31636.000
53.936,30008.000
54.357,2432473.000
54.777,29857.000
55.198,29860.000
55.619,29838.000
56.039,29731.000
56.460,31876.000
56.881,29106.000
57.301,31124.000
57.722,30074.000
58.142,29977.000
58.563,31437.000
58.984,29505.000
59.404,41178.000
59.825,29281.000
60.246,29487.000
60.666,29391.000
61.087,29757.000
61.507,31235.000
61.928,29150.000
62.349,2811421.000
62.769,29330.000
63.190,29870.000
63.611,30198.000
64.031,29899.000
64.452,32408.000
64.872,29223.000
65.293,31200.000
65.714,30257.000
66.134,29873.000
66.555,31661.000
66.976,29715.000
67.396,60558.000
67.817,30133.000
68.237,29537.000
68.658,29629.000
69.079,29467.000
69.499,31622.000
69.920,28853.000
70.341,2387102.000
70.761,29266.000
71.182,29784.000
71.602,29144.000
72.023,29098.000
72.444,31706.000
72.864,29271.000
73.285,29001.000
73.706,28421.000
74.126,29999.000
74.547,31833.000
74.967,29516.000
75.388,168313.000
75.809,28940.000
76.229,28879.000
76.650,30185.000
77.071,29871.000
77.491,31372.000
77.912,29176.000
78.332,1216695.000
78.753,29672.000
79.174,29937.000
79.594,29380.000
80.015,29756.000
80.436,32463.000
80.856,29526.000
81.277,29363.000
81.697,29168.000
82.118,29643.000
82.539,30639.000
82.959,29016.000
83.380,404342.000
83.801,29024.000
84.221,29504.000
84.642,29004.000
85.062,29412.000
85.483,31083.000
85.904,29569.000
86.324,174559.000
86.745,29345.000
87.166,28445.000
87.586,29942.000
88.007,29614.000
88.427,32142.000
88.848,28778.000
89.269,28704.000
89.689,29178.000
90.110,28794.000
90.531,30664.000
90.951,28966.000
91.372,1249703.000
91.792,29253.000
92.213,29131.000
92.634,28599.000
93.054,28276.000
93.475,30877.000
93.896,28454.000
94.316,37359.000
94.737,28916.000
95.157,29235.000
95.578,30161.000
95.999,28993.000
96.419,32419.000
96.840,28981.000
97.261,28179.000
97.681,28072.000
98.102,29029.000
98.522,30036.000
98.943,28848.000
99.364,2397826.000
99.784,28406.000
100.205,28598.000
100.626,28854.000
101.046,28235.000
101.467,30138.000
101.887,28714.000
102.308,28398.000
102.729,29053.000
103.149,28466.000
103.570,28879.000
103.991,28755.000
104.411,28452.000
104.832,28912.000
105.252,29596.000
105.673,29017.000
106.094,28590.000
106.514,28997.000
106.935,29515.000
107.356,29130.000
107.776,30038.000
108.197,28982.000
108.617,29487.000
109.038,29017.000
109.459,29986.000
109.879,29771.000
110.300,28508.000
110.721,29713.000
111.141,29511.000
111.562,31052.000
111.982,29899.000
112.403,29366.000
112.824,30158.000
113.244,29354.000
113.665,29965.000
114.086,29967.000
114.506,30731.000
114.927,30292.000
115.347,30151.000
115.768,30584.000
116.189,30164.000
116.609,30242.000
117.030,30140.000
117.451,30031.000
117.871,30137.000
118.292,30726.000
118.712,31156.000
119.133,29560.000
119.554,30409.000
119.974,30606.000
120.395,30701.000
120.816,30918.000
121.236,31516.000
121.657,30991.000
122.078,31325.000
122.498,31019.000
122.919,30066.000
123.339,30260.000
123.760,30147.000
124.181,30558.000
124.601,30535.000
124.987,30858.000