File: TGA-MS/DWTRMN.D/tic_front.csv
D:\GAILLARD\WALLACE_SAMUEL\DWTRMN.D 22 Sep 21  10:04 am
Start of data points
0.0960167,140978
0.516633,128980
0.937267,134330
1.35788,3300987
1.77852,30941
2.19913,32003
2.61977,31141
3.0404,31162
3.46102,33593
3.88165,31740
4.30227,32448
4.7229,31010
5.14352,30655
5.56415,32753
5.98477,30947
6.4054,38728
6.82603,30526
7.24665,31478
7.66728,31147
8.0879,30937
8.50853,32527
8.92915,31330
9.34978,2337165
9.7704,31002
10.191,30386
10.6117,31336
11.0323,31101
11.4529,33507
11.8735,31972
12.2942,31518
12.7148,31104
13.1354,30815
13.556,33216
13.9767,30894
14.3973,48243
14.8179,30531
15.2385,30375
15.6592,30086
16.0798,31010
16.5004,32190
16.9211,30856
17.3417,1905384
17.7623,30372
18.1829,30174
18.6036,31086
19.0242,30765
19.4448,33968
19.8654,30895
20.286,30900
20.7067,31310
21.1273,30426
21.5479,31770
21.9686,30718
22.3892,76682
22.8098,30755
23.2304,30153
23.6511,30972
24.0717,30380
24.4923,32868
24.9129,31011
25.3336,974602
25.7542,30657
26.1748,30280
26.5954,30998
27.0161,29887
27.4367,32992
27.8573,29869
28.2779,29985
28.6986,30424
29.1192,30914
29.5398,31901
29.9605,30699
30.3811,187707
30.8017,30754
31.2223,30036
31.643,30333
32.0636,30119
32.4842,32294
32.9048,30182
33.3254,236289
33.7461,30691
34.1667,30458
34.5873,31333
35.008,30971
35.4286,33244
35.8492,30492
36.2698,29810
36.6904,29947
37.1111,30691
37.5317,32554
37.9523,30217
38.373,613765
38.7936,30442
39.2142,30688
39.6348,30646
40.0555,29940
40.4761,33014
40.8967,30119
41.3173,44994
41.738,30652
42.1586,30239
42.5792,30625
42.9999,29448
43.4205,34674
43.8411,30279
44.2617,29744
44.6824,30665
45.103,29494
45.5236,31644
45.9442,30159
46.3649,1507300
46.7855,29685
47.2061,29729
47.6267,29826
48.0474,29754
48.468,32510
48.8886,29701
49.3092,31638
49.7298,30423
50.1505,30388
50.5711,31585
50.9917,30162
51.4124,35339
51.833,30464
52.2536,29318
52.6742,30692
53.0949,29541
53.5155,31636
53.9361,30008
54.3567,2432473
54.7774,29857
55.198,29860
55.6186,29838
56.0393,29731
56.4599,31876
56.8805,29106
57.3011,31124
57.7218,30074
58.1424,29977
58.563,31437
58.9836,29505
59.4043,41178
59.8249,29281
60.2455,29487
60.6661,29391
61.0868,29757
61.5074,31235
61.928,29150
62.3486,2811421
62.7693,29330
63.1899,29870
63.6105,30198
64.0311,29899
64.4518,32408
64.8724,29223
65.293,31200
65.7136,30257
66.1343,29873
66.5549,31661
66.9755,29715
67.3961,60558
67.8168,30133
68.2374,29537
68.658,29629
69.0786,29467
69.4993,31622
69.9199,28853
70.3405,2387102
70.7612,29266
71.1818,29784
71.6024,29144
72.023,29098
72.4437,31706
72.8643,29271
73.2849,29001
73.7055,28421
74.1262,29999
74.5468,31833
74.9674,29516
75.388,168313
75.8087,28940
76.2293,28879
76.6499,30185
77.0705,29871
77.4912,31372
77.9118,29176
78.3324,1216695
78.753,29672
79.1737,29937
79.5943,29380
80.0149,29756
80.4355,32463
80.8562,29526
81.2768,29363
81.6974,29168
82.1181,29643
82.5387,30639
82.9593,29016
83.3799,404342
83.8006,29024
84.2212,29504
84.6418,29004
85.0624,29412
85.4831,31083
85.9037,29569
86.3243,174559
86.7449,29345
87.1656,28445
87.5862,29942
88.0068,29614
88.4274,32142
88.8481,28778
89.2687,28704
89.6893,29178
90.1099,28794
90.5306,30664
90.9512,28966
91.3718,1249703
91.7924,29253
92.2131,29131
92.6337,28599
93.0543,28276
93.4749,30877
93.8956,28454
94.3162,37359
94.7368,28916
95.1575,29235
95.5781,30161
95.9987,28993
96.4193,32419
96.84,28981
97.2606,28179
97.6812,28072
98.1018,29029
98.5225,30036
98.9431,28848
99.3637,2397826
99.7843,28406
100.205,28598
100.626,28854
101.046,28235
101.467,30138
101.887,28714
102.308,28398
102.729,29053
103.149,28466
103.57,28879
103.991,28755
104.411,28452
104.832,28912
105.252,29596
105.673,29017
106.094,28590
106.514,28997
106.935,29515
107.356,29130
107.776,30038
108.197,28982
108.617,29487
109.038,29017
109.459,29986
109.879,29771
110.3,28508
110.721,29713
111.141,29511
111.562,31052
111.982,29899
112.403,29366
112.824,30158
113.244,29354
113.665,29965
114.086,29967
114.506,30731
114.927,30292
115.347,30151
115.768,30584
116.189,30164
116.609,30242
117.03,30140
117.451,30031
117.871,30137
118.292,30726
118.712,31156
119.133,29560
119.554,30409
119.974,30606
120.395,30701
120.816,30918
121.236,31516
121.657,30991
122.078,31325
122.498,31019
122.919,30066
123.339,30260
123.76,30147
124.181,30558
124.601,30535
124.987,30858